File: Physics/XRD/S22m.dat
       q_A^-1             I
  1.093235e-02    1.041486e+06
  3.645566e-02    7.659840e+05
  6.197897e-02    2.000346e+05
  8.750227e-02    5.626727e+04
  1.130256e-01    1.947749e+04
  1.385489e-01    9.296874e+03
  1.640722e-01    6.260874e+03
  1.895955e-01    4.669809e+03
  2.151188e-01    3.474411e+03
  2.406421e-01    2.165708e+03
  2.661654e-01    1.295543e+03
  2.916887e-01    5.651284e+02
  3.172120e-01    3.394424e+02
  3.427353e-01    1.477146e+02
  3.682587e-01    8.326718e+01
  3.937820e-01    6.200679e+01
  4.193053e-01    5.209684e+01
  4.448286e-01    4.427235e+01
  4.703519e-01    4.020155e+01
  4.958752e-01    3.577422e+01
  5.213985e-01    3.311917e+01
  5.469218e-01    3.078767e+01
  5.724451e-01    2.921847e+01
  5.979684e-01    2.793364e+01
  6.234917e-01    2.552270e+01
  6.490150e-01    2.370427e+01
  6.745383e-01    2.330517e+01
  7.000616e-01    2.318847e+01
  7.255850e-01    2.187002e+01
  7.511083e-01    2.196192e+01
  7.766316e-01    2.061967e+01
  8.021549e-01    2.000474e+01
  8.276782e-01    1.952473e+01
  8.532015e-01    1.888476e+01
  8.787248e-01    1.859162e+01
  9.042481e-01    1.815917e+01
  9.297714e-01    1.705133e+01
  9.552947e-01    1.693314e+01
  9.808180e-01    1.642418e+01
  1.006341e+00    1.643266e+01
  1.031865e+00    1.577652e+01
  1.057388e+00    1.534754e+01
  1.082911e+00    1.532166e+01
  1.108435e+00    1.475132e+01
  1.133958e+00    1.451462e+01
  1.159481e+00    1.425006e+01
  1.185004e+00    1.415106e+01
  1.210528e+00    1.423571e+01
  1.236051e+00    1.374767e+01
  1.261574e+00    1.351561e+01
  1.287098e+00    1.271378e+01
  1.312621e+00    1.328515e+01
  1.338144e+00    1.257876e+01
  1.363668e+00    1.256796e+01
  1.389191e+00    1.235352e+01
  1.414714e+00    1.237557e+01
  1.440238e+00    1.201546e+01
  1.465761e+00    1.195159e+01
  1.491284e+00    1.127777e+01
  1.516807e+00    1.111228e+01
  1.542331e+00    1.140673e+01
  1.567854e+00    1.087788e+01
  1.593377e+00    1.101803e+01
  1.618901e+00    1.077739e+01
  1.644424e+00    1.027921e+01
  1.669947e+00    9.913054e+00
  1.695471e+00    1.005966e+01
  1.720994e+00    1.000971e+01
  1.746517e+00    9.827474e+00
  1.772041e+00    9.512687e+00
  1.797564e+00    9.200983e+00
  1.823087e+00    9.317687e+00
  1.848610e+00    9.047274e+00
  1.874134e+00    8.964292e+00
  1.899657e+00    8.741285e+00
  1.925180e+00    8.579457e+00
  1.950704e+00    8.234568e+00
  1.976227e+00    8.109859e+00
  2.001750e+00    8.058457e+00
  2.027274e+00    7.963597e+00
  2.052797e+00    7.721560e+00
  2.078320e+00    7.578280e+00
  2.103844e+00    7.454157e+00
  2.129367e+00    7.012545e+00
  2.154890e+00    7.177602e+00
  2.180413e+00    6.800865e+00
  2.205937e+00    6.840905e+00
  2.231460e+00    6.678408e+00
  2.256983e+00    6.390779e+00
  2.282507e+00    6.467010e+00
  2.308030e+00    6.194956e+00
  2.333553e+00    6.457661e+00
  2.359077e+00    6.067836e+00
  2.384600e+00    6.014760e+00
  2.410123e+00    6.022189e+00
  2.435647e+00    6.012409e+00
  2.461170e+00    6.062791e+00
  2.486693e+00    5.875602e+00
  2.512216e+00    5.918706e+00
  2.537740e+00    5.734303e+00
  2.563263e+00    5.625244e+00
  2.588786e+00    5.610312e+00
  2.614310e+00    5.435820e+00
  2.639833e+00    5.611585e+00
  2.665356e+00    5.454951e+00
  2.690880e+00    5.287642e+00
  2.716403e+00    5.307582e+00
  2.741926e+00    5.277707e+00
  2.767450e+00    5.323771e+00
  2.792973e+00    5.351996e+00
  2.818496e+00    5.220302e+00
  2.844019e+00    5.187859e+00
  2.869543e+00    5.045514e+00
  2.895066e+00    5.036690e+00
  2.920589e+00    5.108271e+00
  2.946113e+00    5.125541e+00
  2.971636e+00    5.116532e+00
  2.997159e+00    5.394487e+00
  3.022683e+00    5.697763e+00
  3.048206e+00    1.021082e+01
  3.073729e+00    1.204044e+01
  3.099253e+00    7.463548e+00
  3.124776e+00    5.337955e+00
  3.150299e+00    4.886367e+00
  3.175822e+00    4.771571e+00
  3.201346e+00    4.555545e+00
  3.226869e+00    4.784528e+00
  3.252392e+00    4.648495e+00
  3.277916e+00    4.487811e+00
  3.303439e+00    4.468782e+00
  3.328962e+00    4.228308e+00
  3.354486e+00    4.380038e+00
  3.380009e+00    4.414450e+00
  3.405532e+00    4.225890e+00
  3.431056e+00    4.342920e+00
  3.456579e+00    4.185664e+00
  3.482102e+00    4.226456e+00
  3.507625e+00    4.186874e+00
  3.533149e+00    4.141647e+00
  3.558672e+00    4.190501e+00
  3.584195e+00    3.993151e+00
  3.609719e+00    4.098041e+00
  3.635242e+00    4.135969e+00
  3.660765e+00    4.124567e+00
  3.686289e+00    3.946419e+00
  3.711812e+00    4.025722e+00
  3.737335e+00    3.949813e+00
  3.762859e+00    3.879861e+00
  3.788382e+00    3.869087e+00
  3.813905e+00    3.865917e+00
  3.839428e+00    3.990898e+00
  3.864952e+00    3.729491e+00
  3.890475e+00    3.796587e+00
  3.915998e+00    3.632107e+00
  3.941522e+00    3.695890e+00
  3.967045e+00    3.689132e+00
  3.992568e+00    3.688888e+00
  4.018092e+00    3.622636e+00
  4.043615e+00    3.542725e+00
  4.069138e+00    3.553451e+00
  4.094662e+00    3.608676e+00
  4.120185e+00    3.700227e+00
  4.145708e+00    3.713815e+00
  4.171231e+00    3.872161e+00
  4.196755e+00    3.582405e+00
  4.222278e+00    3.710765e+00
  4.247801e+00    3.618484e+00
  4.273325e+00    3.615656e+00
  4.298848e+00    3.728620e+00
  4.324371e+00    4.290457e+00
  4.349895e+00    4.314027e+00
  4.375418e+00    3.678386e+00
  4.400941e+00    3.436323e+00
  4.426465e+00    3.236542e+00
  4.451988e+00    3.336676e+00
  4.477511e+00    3.529698e+00
  4.503034e+00    3.375934e+00
  4.528558e+00    3.144681e+00
  4.554081e+00    3.292476e+00
  4.579604e+00    3.285084e+00
  4.605128e+00    3.286734e+00
  4.630651e+00    3.090194e+00
  4.656174e+00    3.203348e+00
  4.681698e+00    3.376739e+00
  4.707221e+00    3.338282e+00
  4.732744e+00    3.199337e+00
  4.758267e+00    3.142842e+00
  4.783791e+00    3.249079e+00
  4.809314e+00    3.146219e+00
  4.834837e+00    3.124309e+00
  4.860361e+00    3.077971e+00
  4.885884e+00    3.066140e+00
  4.911407e+00    3.108371e+00
  4.936931e+00    3.104412e+00
  4.962454e+00    3.010406e+00
  4.987977e+00    3.023694e+00
  5.013501e+00    2.956336e+00
  5.039024e+00    3.068623e+00
  5.064547e+00    3.076557e+00
  5.090070e+00    2.925102e+00
  5.115594e+00    3.021974e+00
  5.141117e+00    2.855751e+00
  5.166640e+00    3.071239e+00
  5.192164e+00    2.971208e+00
  5.217687e+00    2.944274e+00
  5.243210e+00    2.978081e+00
  5.268734e+00    2.942060e+00
  5.294257e+00    4.070002e+00
  5.319780e+00    4.593606e+00
  5.345304e+00    3.684947e+00
  5.370827e+00    3.191427e+00
  5.396350e+00    2.722037e+00
  5.421873e+00    2.769690e+00
  5.447397e+00    2.718894e+00
  5.472920e+00    2.703373e+00
  5.498443e+00    2.650197e+00
  5.523967e+00    2.670476e+00
  5.549490e+00    2.538471e+00
  5.575013e+00    2.659289e+00
  5.600537e+00    2.817764e+00
  5.626060e+00    2.541692e+00
  5.651583e+00    2.651161e+00
  5.677107e+00    2.527850e+00
  5.702630e+00    2.554163e+00
  5.728153e+00    2.682297e+00
  5.753676e+00    2.597156e+00
  5.779200e+00    2.703221e+00
  5.804723e+00    2.570484e+00
  5.830246e+00    2.524548e+00
  5.855770e+00    2.507420e+00
  5.881293e+00    2.456417e+00
  5.906816e+00    2.446221e+00
  5.932340e+00    2.366882e+00
  5.957863e+00    2.421506e+00
  5.983386e+00    2.605909e+00
  6.008910e+00    2.557434e+00
  6.034433e+00    2.482491e+00
  6.059956e+00    2.492275e+00
  6.085479e+00    2.384830e+00
  6.111003e+00    2.992307e+00
  6.136526e+00    3.027776e+00
  6.162049e+00    2.934794e+00
  6.187573e+00    2.402015e+00
  6.213096e+00    2.297848e+00
  6.238619e+00    2.287203e+00
  6.264143e+00    2.658879e+00
  6.289666e+00    2.685597e+00
  6.315189e+00    2.840363e+00
  6.340713e+00    2.309501e+00
  6.366236e+00    2.037036e+00
  6.378998e+00    4.996594e-01