File: Physics/XRD/S25m.dat
      q_A^-1             I
  1.093235e-02    1.039487e+06
  3.645566e-02    8.626468e+05
  6.197897e-02    3.537673e+05
  8.750227e-02    1.406591e+05
  1.130256e-01    4.864715e+04
  1.385489e-01    2.328185e+04
  1.640722e-01    1.571454e+04
  1.895955e-01    1.163411e+04
  2.151188e-01    8.722849e+03
  2.406421e-01    5.395396e+03
  2.661654e-01    3.247636e+03
  2.916887e-01    1.416322e+03
  3.172120e-01    8.568373e+02
  3.427353e-01    3.760553e+02
  3.682587e-01    2.124819e+02
  3.937820e-01    1.524105e+02
  4.193053e-01    1.306341e+02
  4.448286e-01    1.097134e+02
  4.703519e-01    1.001036e+02
  4.958752e-01    9.192010e+01
  5.213985e-01    8.248935e+01
  5.469218e-01    7.625661e+01
  5.724451e-01    7.210317e+01
  5.979684e-01    6.869106e+01
  6.234917e-01    6.325600e+01
  6.490150e-01    6.035358e+01
  6.745383e-01    5.721375e+01
  7.000616e-01    5.646203e+01
  7.255850e-01    5.526379e+01
  7.511083e-01    5.331180e+01
  7.766316e-01    5.252838e+01
  8.021549e-01    4.992582e+01
  8.276782e-01    4.903324e+01
  8.532015e-01    4.782880e+01
  8.787248e-01    4.611415e+01
  9.042481e-01    4.519987e+01
  9.297714e-01    4.288232e+01
  9.552947e-01    4.236345e+01
  9.808180e-01    4.094550e+01
  1.006341e+00    4.117535e+01
  1.031865e+00    4.027430e+01
  1.057388e+00    3.946814e+01
  1.082911e+00    3.897044e+01
  1.108435e+00    3.758461e+01
  1.133958e+00    3.765095e+01
  1.159481e+00    3.551538e+01
  1.185004e+00    3.594416e+01
  1.210528e+00    3.583366e+01
  1.236051e+00    3.382051e+01
  1.261574e+00    3.323452e+01
  1.287098e+00    3.320231e+01
  1.312621e+00    3.200516e+01
  1.338144e+00    3.107417e+01
  1.363668e+00    3.058173e+01
  1.389191e+00    3.079300e+01
  1.414714e+00    2.951118e+01
  1.440238e+00    3.002571e+01
  1.465761e+00    2.976929e+01
  1.491284e+00    2.848430e+01
  1.516807e+00    2.835610e+01
  1.542331e+00    2.823402e+01
  1.567854e+00    2.738437e+01
  1.593377e+00    2.583941e+01
  1.618901e+00    2.592639e+01
  1.644424e+00    2.567143e+01
  1.669947e+00    2.539738e+01
  1.695471e+00    2.461166e+01
  1.720994e+00    2.460750e+01
  1.746517e+00    2.436975e+01
  1.772041e+00    2.363505e+01
  1.797564e+00    2.331534e+01
  1.823087e+00    2.312156e+01
  1.848610e+00    2.244968e+01
  1.874134e+00    2.266022e+01
  1.899657e+00    2.178823e+01
  1.925180e+00    2.105911e+01
  1.950704e+00    2.077975e+01
  1.976227e+00    2.059097e+01
  2.001750e+00    2.011323e+01
  2.027274e+00    1.941638e+01
  2.052797e+00    1.910000e+01
  2.078320e+00    1.929135e+01
  2.103844e+00    1.820432e+01
  2.129367e+00    1.795289e+01
  2.154890e+00    1.759677e+01
  2.180413e+00    1.742698e+01
  2.205937e+00    1.663000e+01
  2.231460e+00    1.665569e+01
  2.256983e+00    1.633632e+01
  2.282507e+00    1.618161e+01
  2.308030e+00    1.619691e+01
  2.333553e+00    1.581912e+01
  2.359077e+00    1.554660e+01
  2.384600e+00    1.503841e+01
  2.410123e+00    1.538825e+01
  2.435647e+00    1.519510e+01
  2.461170e+00    1.516471e+01
  2.486693e+00    1.481318e+01
  2.512216e+00    1.449390e+01
  2.537740e+00    1.439561e+01
  2.563263e+00    1.411114e+01
  2.588786e+00    1.389154e+01
  2.614310e+00    1.421459e+01
  2.639833e+00    1.350659e+01
  2.665356e+00    1.360586e+01
  2.690880e+00    1.332110e+01
  2.716403e+00    1.333305e+01
  2.741926e+00    1.347476e+01
  2.767450e+00    1.310614e+01
  2.792973e+00    1.347998e+01
  2.818496e+00    1.298928e+01
  2.844019e+00    1.264987e+01
  2.869543e+00    1.272403e+01
  2.895066e+00    1.297103e+01
  2.920589e+00    1.286088e+01
  2.946113e+00    1.276358e+01
  2.971636e+00    1.303149e+01
  2.997159e+00    1.307920e+01
  3.022683e+00    1.470655e+01
  3.048206e+00    2.545820e+01
  3.073729e+00    3.012327e+01
  3.099253e+00    1.904608e+01
  3.124776e+00    1.297014e+01
  3.150299e+00    1.212838e+01
  3.175822e+00    1.189930e+01
  3.201346e+00    1.158660e+01
  3.226869e+00    1.156449e+01
  3.252392e+00    1.151374e+01
  3.277916e+00    1.124431e+01
  3.303439e+00    1.122602e+01
  3.328962e+00    1.093519e+01
  3.354486e+00    1.087155e+01
  3.380009e+00    1.163474e+01
  3.405532e+00    1.094032e+01
  3.431056e+00    1.086907e+01
  3.456579e+00    1.081986e+01
  3.482102e+00    1.064825e+01
  3.507625e+00    1.066419e+01
  3.533149e+00    1.045444e+01
  3.558672e+00    1.050556e+01
  3.584195e+00    9.905425e+00
  3.609719e+00    9.949288e+00
  3.635242e+00    1.017345e+01
  3.660765e+00    9.912291e+00
  3.686289e+00    9.969993e+00
  3.711812e+00    1.005130e+01
  3.737335e+00    9.819605e+00
  3.762859e+00    9.716213e+00
  3.788382e+00    9.886282e+00
  3.813905e+00    9.826212e+00
  3.839428e+00    9.722069e+00
  3.864952e+00    9.594783e+00
  3.890475e+00    9.605025e+00
  3.915998e+00    9.451052e+00
  3.941522e+00    9.385552e+00
  3.967045e+00    9.233549e+00
  3.992568e+00    9.298031e+00
  4.018092e+00    9.624932e+00
  4.043615e+00    9.290699e+00
  4.069138e+00    9.049372e+00
  4.094662e+00    9.280742e+00
  4.120185e+00    9.033175e+00
  4.145708e+00    9.208353e+00
  4.171231e+00    9.236289e+00
  4.196755e+00    9.062316e+00
  4.222278e+00    9.123285e+00
  4.247801e+00    8.932636e+00
  4.273325e+00    8.875051e+00
  4.298848e+00    9.366964e+00
  4.324371e+00    1.085073e+01
  4.349895e+00    1.096181e+01
  4.375418e+00    9.433408e+00
  4.400941e+00    8.675395e+00
  4.426465e+00    8.429887e+00
  4.451988e+00    8.554491e+00
  4.477511e+00    8.345137e+00
  4.503034e+00    8.450876e+00
  4.528558e+00    8.257800e+00
  4.554081e+00    8.320170e+00
  4.579604e+00    8.317157e+00
  4.605128e+00    8.192499e+00
  4.630651e+00    8.132209e+00
  4.656174e+00    7.943493e+00
  4.681698e+00    8.050670e+00
  4.707221e+00    7.874825e+00
  4.732744e+00    7.993893e+00
  4.758267e+00    7.990953e+00
  4.783791e+00    7.962402e+00
  4.809314e+00    7.973112e+00
  4.834837e+00    7.918195e+00
  4.860361e+00    7.757269e+00
  4.885884e+00    8.055376e+00
  4.911407e+00    7.531317e+00
  4.936931e+00    7.730685e+00
  4.962454e+00    7.768039e+00
  4.987977e+00    7.428147e+00
  5.013501e+00    7.514605e+00
  5.039024e+00    7.316439e+00
  5.064547e+00    7.772614e+00
  5.090070e+00    7.349578e+00
  5.115594e+00    7.592627e+00
  5.141117e+00    7.296522e+00
  5.166640e+00    7.444715e+00
  5.192164e+00    7.288198e+00
  5.217687e+00    7.322869e+00
  5.243210e+00    7.537057e+00
  5.268734e+00    7.603583e+00
  5.294257e+00    1.022313e+01
  5.319780e+00    1.196884e+01
  5.345304e+00    8.939098e+00
  5.370827e+00    7.403925e+00
  5.396350e+00    6.946321e+00
  5.421873e+00    6.769282e+00
  5.447397e+00    6.825265e+00
  5.472920e+00    6.691954e+00
  5.498443e+00    6.501500e+00
  5.523967e+00    6.856823e+00
  5.549490e+00    6.678571e+00
  5.575013e+00    6.648371e+00
  5.600537e+00    6.595305e+00
  5.626060e+00    6.400808e+00
  5.651583e+00    6.374484e+00
  5.677107e+00    6.515392e+00
  5.702630e+00    6.531163e+00
  5.728153e+00    6.515499e+00
  5.753676e+00    6.320370e+00
  5.779200e+00    6.451957e+00
  5.804723e+00    6.244357e+00
  5.830246e+00    6.172180e+00
  5.855770e+00    6.160261e+00
  5.881293e+00    5.967562e+00
  5.906816e+00    6.269983e+00
  5.932340e+00    6.255125e+00
  5.957863e+00    6.485704e+00
  5.983386e+00    6.001701e+00
  6.008910e+00    5.969747e+00
  6.034433e+00    5.990087e+00
  6.059956e+00    6.185948e+00
  6.085479e+00    6.401283e+00
  6.111003e+00    6.412550e+00
  6.136526e+00    6.950964e+00
  6.162049e+00    6.683977e+00
  6.187573e+00    6.328397e+00
  6.213096e+00    6.064252e+00
  6.238619e+00    5.445454e+00
  6.264143e+00    6.106767e+00
  6.289666e+00    6.291986e+00
  6.315189e+00    6.568247e+00
  6.340713e+00    6.982209e+00
  6.366236e+00    6.113348e+00
  6.378998e+00    5.253155e+00