File: Physics/XRD/sp1.dat
     q_A^-1             I
  1.093235e-02    1.044879e+06
  3.645566e-02    6.109189e+05
  6.197897e-02    1.337173e+05
  8.750227e-02    2.687212e+04
  1.130256e-01    9.595006e+03
  1.385489e-01    4.700472e+03
  1.640722e-01    3.183326e+03
  1.895955e-01    2.351616e+03
  2.151188e-01    1.265882e+03
  2.406421e-01    4.776793e+02
  2.661654e-01    3.607076e+02
  2.916887e-01    1.543901e+02
  3.172120e-01    7.442480e+01
  3.427353e-01    3.657726e+01
  3.682587e-01    3.076899e+01
  3.937820e-01    2.657262e+01
  4.193053e-01    2.402449e+01
  4.448286e-01    2.000677e+01
  4.703519e-01    1.767103e+01
  4.958752e-01    1.636916e+01
  5.213985e-01    1.468315e+01
  5.469218e-01    1.427129e+01
  5.724451e-01    1.343545e+01
  5.979684e-01    1.261868e+01
  6.234917e-01    1.198561e+01
  6.490150e-01    1.103254e+01
  6.745383e-01    1.131454e+01
  7.000616e-01    1.030814e+01
  7.255850e-01    1.029956e+01
  7.511083e-01    9.070158e+00
  7.766316e-01    9.692951e+00
  8.021549e-01    8.847351e+00
  8.276782e-01    9.032982e+00
  8.532015e-01    8.802727e+00
  8.787248e-01    8.455224e+00
  9.042481e-01    8.391676e+00
  9.297714e-01    8.404436e+00
  9.552947e-01    7.713487e+00
  9.808180e-01    7.799902e+00
  1.006341e+00    7.288881e+00
  1.031865e+00    7.482743e+00
  1.057388e+00    7.561807e+00
  1.082911e+00    7.115945e+00
  1.108435e+00    7.064820e+00
  1.133958e+00    6.746249e+00
  1.159481e+00    6.536939e+00
  1.185004e+00    6.505283e+00
  1.210528e+00    6.610795e+00
  1.236051e+00    6.418792e+00
  1.261574e+00    6.223250e+00
  1.287098e+00    6.203279e+00
  1.312621e+00    6.252060e+00
  1.338144e+00    6.051503e+00
  1.363668e+00    5.749464e+00
  1.389191e+00    5.451881e+00
  1.414714e+00    5.587795e+00
  1.440238e+00    5.469562e+00
  1.465761e+00    5.481733e+00
  1.491284e+00    5.377319e+00
  1.516807e+00    5.270293e+00
  1.542331e+00    5.393756e+00
  1.567854e+00    5.076544e+00
  1.593377e+00    5.165918e+00
  1.618901e+00    4.942521e+00
  1.644424e+00    5.025131e+00
  1.669947e+00    4.537980e+00
  1.695471e+00    4.485679e+00
  1.720994e+00    4.608601e+00
  1.746517e+00    4.440911e+00
  1.772041e+00    4.530761e+00
  1.797564e+00    4.410954e+00
  1.823087e+00    4.469519e+00
  1.848610e+00    4.335063e+00
  1.874134e+00    4.187585e+00
  1.899657e+00    4.051587e+00
  1.925180e+00    4.109580e+00
  1.950704e+00    4.074761e+00
  1.976227e+00    3.968700e+00
  2.001750e+00    3.940799e+00
  2.027274e+00    3.663429e+00
  2.052797e+00    3.699140e+00
  2.078320e+00    3.641519e+00
  2.103844e+00    3.793093e+00
  2.129367e+00    3.519246e+00
  2.154890e+00    3.389039e+00
  2.180413e+00    3.242753e+00
  2.205937e+00    3.315005e+00
  2.231460e+00    3.490298e+00
  2.256983e+00    3.206896e+00
  2.282507e+00    3.134400e+00
  2.308030e+00    3.218859e+00
  2.333553e+00    2.981153e+00
  2.359077e+00    3.088213e+00
  2.384600e+00    3.128240e+00
  2.410123e+00    3.031057e+00
  2.435647e+00    3.071741e+00
  2.461170e+00    3.158811e+00
  2.486693e+00    3.165359e+00
  2.512216e+00    3.297480e+00
  2.537740e+00    3.479779e+00
  2.563263e+00    3.924721e+00
  2.588786e+00    5.553015e+00
  2.614310e+00    1.128404e+01
  2.639833e+00    1.501052e+01
  2.665356e+00    9.909124e+00
  2.690880e+00    4.982718e+00
  2.716403e+00    3.413379e+00
  2.741926e+00    3.299381e+00
  2.767450e+00    3.313458e+00
  2.792973e+00    3.153561e+00
  2.818496e+00    2.966379e+00
  2.844019e+00    2.983593e+00
  2.869543e+00    2.962311e+00
  2.895066e+00    2.986558e+00
  2.920589e+00    3.007923e+00
  2.946113e+00    3.203808e+00
  2.971636e+00    3.313827e+00
  2.997159e+00    4.327337e+00
  3.022683e+00    6.488290e+00
  3.048206e+00    7.106612e+00
  3.073729e+00    5.192272e+00
  3.099253e+00    3.350378e+00
  3.124776e+00    2.700104e+00
  3.150299e+00    2.651435e+00
  3.175822e+00    2.456822e+00
  3.201346e+00    2.575196e+00
  3.226869e+00    2.571313e+00
  3.252392e+00    2.390091e+00
  3.277916e+00    2.244712e+00
  3.303439e+00    2.143274e+00
  3.328962e+00    2.216888e+00
  3.354486e+00    2.220900e+00
  3.380009e+00    2.211265e+00
  3.405532e+00    2.130448e+00
  3.431056e+00    2.205070e+00
  3.456579e+00    2.114877e+00
  3.482102e+00    2.249864e+00
  3.507625e+00    2.120296e+00
  3.533149e+00    2.013312e+00
  3.558672e+00    2.147872e+00
  3.584195e+00    2.133058e+00
  3.609719e+00    1.987209e+00
  3.635242e+00    2.069784e+00
  3.660765e+00    2.066763e+00
  3.686289e+00    2.067566e+00
  3.711812e+00    2.035465e+00
  3.737335e+00    1.969817e+00
  3.762859e+00    2.012216e+00
  3.788382e+00    1.900552e+00
  3.813905e+00    1.892135e+00
  3.839428e+00    1.979879e+00
  3.864952e+00    1.981471e+00
  3.890475e+00    1.931860e+00
  3.915998e+00    1.913833e+00
  3.941522e+00    1.869810e+00
  3.967045e+00    1.923089e+00
  3.992568e+00    1.968853e+00
  4.018092e+00    2.042698e+00
  4.043615e+00    1.908860e+00
  4.069138e+00    1.946810e+00
  4.094662e+00    1.964354e+00
  4.120185e+00    1.972833e+00
  4.145708e+00    1.929764e+00
  4.171231e+00    1.891629e+00
  4.196755e+00    2.010098e+00
  4.222278e+00    2.086007e+00
  4.247801e+00    2.481096e+00
  4.273325e+00    3.755020e+00
  4.298848e+00    4.812572e+00
  4.324371e+00    4.125501e+00
  4.349895e+00    2.614412e+00
  4.375418e+00    2.175171e+00
  4.400941e+00    1.873307e+00
  4.426465e+00    1.827926e+00
  4.451988e+00    1.767092e+00
  4.477511e+00    1.790483e+00
  4.503034e+00    1.697708e+00
  4.528558e+00    1.724684e+00
  4.554081e+00    1.772668e+00
  4.579604e+00    1.681276e+00
  4.605128e+00    1.771072e+00
  4.630651e+00    1.713817e+00
  4.656174e+00    1.676919e+00
  4.681698e+00    1.592347e+00
  4.707221e+00    1.681417e+00
  4.732744e+00    1.622644e+00
  4.758267e+00    1.734132e+00
  4.783791e+00    1.654833e+00
  4.809314e+00    1.727674e+00
  4.834837e+00    1.718730e+00
  4.860361e+00    1.736454e+00
  4.885884e+00    1.827442e+00
  4.911407e+00    1.625988e+00
  4.936931e+00    1.793213e+00
  4.962454e+00    1.821178e+00
  4.987977e+00    2.092711e+00
  5.013501e+00    3.628785e+00
  5.039024e+00    4.639657e+00
  5.064547e+00    4.371822e+00
  5.090070e+00    3.045903e+00
  5.115594e+00    1.960996e+00
  5.141117e+00    1.789155e+00
  5.166640e+00    1.677757e+00
  5.192164e+00    1.613234e+00
  5.217687e+00    1.768240e+00
  5.243210e+00    2.111723e+00
  5.268734e+00    2.406082e+00
  5.294257e+00    2.223828e+00
  5.319780e+00    1.680713e+00
  5.345304e+00    1.516170e+00
  5.370827e+00    1.573734e+00
  5.396350e+00    1.385997e+00
  5.421873e+00    1.401289e+00
  5.447397e+00    1.406640e+00
  5.472920e+00    1.390782e+00
  5.498443e+00    1.350573e+00
  5.523967e+00    1.413111e+00
  5.549490e+00    1.365259e+00
  5.575013e+00    1.332273e+00
  5.600537e+00    1.387730e+00
  5.626060e+00    1.350171e+00
  5.651583e+00    1.350124e+00
  5.677107e+00    1.434394e+00
  5.702630e+00    1.258619e+00
  5.728153e+00    1.410222e+00
  5.753676e+00    1.285930e+00
  5.779200e+00    1.413582e+00
  5.804723e+00    1.375300e+00
  5.830246e+00    1.319916e+00
  5.855770e+00    1.358016e+00
  5.881293e+00    1.287950e+00
  5.906816e+00    1.367335e+00
  5.932340e+00    1.269100e+00
  5.957863e+00    1.412304e+00
  5.983386e+00    2.393958e+00
  6.008910e+00    1.304835e+00
  6.034433e+00    1.258772e+00
  6.059956e+00    1.644058e+00
  6.085479e+00    1.606811e+00
  6.111003e+00    1.446937e+00
  6.136526e+00    1.498581e+00
  6.162049e+00    1.171719e+00
  6.187573e+00    1.156441e+00
  6.213096e+00    1.454232e+00
  6.238619e+00    1.126779e+00
  6.264143e+00    1.079871e+00
  6.289666e+00    1.380844e+00
  6.315189e+00    9.587758e-01
  6.340713e+00    6.442313e-01
  6.366236e+00    2.151596e+00
  6.378998e+00    1.500596e+00